PE IR                   SPECTRUM    ASCII       PEDS        1.60        
  -1
YB(NO3)3.ASC
15/11/26
11:00:59.00
15/11/26
11:00:59.00
Admin

450.000000
5









SPECTRUM ONE,CPU32 MAIN 00.02.2010 04-MAY-2000 11:01:50
MIR TGS
MIR
OPTKBR
55861
0.200000

4.000000
STRONG
RATIO
SPECTRUM
MAGNITUDE

DOUBLE

COMBINED


0


#HDR
-1
-1
#GR
CM-1
%T
0.00002384185791015625
0.0
4000.000000
-1.000000
3551
8
516.448984
5.604768
#DATA
4000.000000	93.535781  
3999.000000	93.554719  
3998.000000	93.560222  
3997.000000	93.547000  
3996.000000	93.518328  
3995.000000	93.482859  
3994.000000	93.462654  
3993.000000	93.438643  
3992.000000	93.427936  
3991.000000	93.427032  
3990.000000	93.430750  
3989.000000	93.436181  
3988.000000	93.443467  
3987.000000	93.454431  
3986.000000	93.470301  
3985.000000	93.489186  
3984.000000	93.506154  
3983.000000	93.516822  
3982.000000	93.520351  
3981.000000	93.518561  
3980.000000	93.514095  
3979.000000	93.510359  
3978.000000	93.510533  
3977.000000	93.514403  
3976.000000	93.518050  
3975.000000	93.519127  
3974.000000	93.520628  
3973.000000	93.526634  
3972.000000	93.535106  
3971.000000	93.538086  
3970.000000	93.528481  
3969.000000	93.504853  
3968.000000	93.471503  
3967.000000	93.437081  
3966.000000	93.412500  
3965.000000	93.405088  
3964.000000	93.412359  
3963.000000	93.423421  
3962.000000	93.428512  
3961.000000	93.427191  
3960.000000	93.425640  
3959.000000	93.427909  
3958.000000	93.431360  
3957.000000	93.429572  
3956.000000	93.418679  
3955.000000	93.401430  
3954.000000	93.386927  
3953.000000	93.384782  
3952.000000	93.398921  
3951.000000	93.425665  
3950.000000	93.455779  
3949.000000	93.478768  
3948.000000	93.489210  
3947.000000	93.492570  
3946.000000	93.500479  
3945.000000	93.515980  
3944.000000	93.526361  
3943.000000	93.516543  
3942.000000	93.488702  
3941.000000	93.460623  
3940.000000	93.444290  
3939.000000	93.435783  
3938.000000	93.425472  
3937.000000	93.410298  
3936.000000	93.393224  
3935.000000	93.374131  
3934.000000	93.349148  
3933.000000	93.318502  
3932.000000	93.290122  
3931.000000	93.272058  
3930.000000	93.264049  
3929.000000	93.261649  
3928.000000	93.263044  
3927.000000	93.268178  
3926.000000	93.273280  
3925.000000	93.273798  
3924.000000	93.273551  
3923.000000	93.281383  
3922.000000	93.297410  
3921.000000	93.310130  
3920.000000	93.308905  
3919.000000	93.294818  
3918.000000	93.275604  
3917.000000	93.254006  
3916.000000	93.227620  
3915.000000	93.198037  
3914.000000	93.171710  
3913.000000	93.155464  
3912.000000	93.154231  
3911.000000	93.169253  
3910.000000	93.193765  
3909.000000	93.213670  
3908.000000	93.217750  
3907.000000	93.204299  
3906.000000	93.180701  
3905.000000	93.154915  
3904.000000	93.132265  
3903.000000	93.120047  
3902.000000	93.127590  
3901.000000	93.153044  
3900.000000	93.174210  
3899.000000	93.167541  
3898.000000	93.133728  
3897.000000	93.093812  
3896.000000	93.066423  
3895.000000	93.060551  
3894.000000	93.075538  
3893.000000	93.097498  
3892.000000	93.101745  
3891.000000	93.081346  
3890.000000	93.070025  
3889.000000	93.110037  
3888.000000	93.203936  
3887.000000	93.302904  
3886.000000	93.348560  
3885.000000	93.339118  
3884.000000	93.327059  
3883.000000	93.345276  
3882.000000	93.371267  
3881.000000	93.364496  
3880.000000	93.323651  
3879.000000	93.293578  
3878.000000	93.316008  
3877.000000	93.390832  
3876.000000	93.478620  
3875.000000	93.529665  
3874.000000	93.530352  
3873.000000	93.519178  
3872.000000	93.538009  
3871.000000	93.577960  
3870.000000	93.595360  
3869.000000	93.579523  
3868.000000	93.563664  
3867.000000	93.565253  
3866.000000	93.562110  
3865.000000	93.542130  
3864.000000	93.536901  
3863.000000	93.574745  
3862.000000	93.633735  
3861.000000	93.676958  
3860.000000	93.692998  
3859.000000	93.694930  
3858.000000	93.702820  
3857.000000	93.728878  
3856.000000	93.769404  
3855.000000	93.798176  
3854.000000	93.780894  
3853.000000	93.735646  
3852.000000	93.713244  
3851.000000	93.724937  
3850.000000	93.740869  
3849.000000	93.737623  
3848.000000	93.722416  
3847.000000	93.723022  
3846.000000	93.757134  
3845.000000	93.818712  
3844.000000	93.884571  
3843.000000	93.934660  
3842.000000	93.966715  
3841.000000	93.986707  
3840.000000	93.991930  
3839.000000	93.980308  
3838.000000	93.965295  
3837.000000	93.960039  
3836.000000	93.967226  
3835.000000	93.986110  
3834.000000	94.014940  
3833.000000	94.045052  
3832.000000	94.063233  
3831.000000	94.068512  
3830.000000	94.076630  
3829.000000	94.102145  
3828.000000	94.138577  
3827.000000	94.162478  
3826.000000	94.163172  
3825.000000	94.161796  
3824.000000	94.185995  
3823.000000	94.232271  
3822.000000	94.262611  
3821.000000	94.253571  
3820.000000	94.236378  
3819.000000	94.254223  
3818.000000	94.302758  
3817.000000	94.333590  
3816.000000	94.318483  
3815.000000	94.294363  
3814.000000	94.309250  
3813.000000	94.355092  
3812.000000	94.387518  
3811.000000	94.387586  
3810.000000	94.381230  
3809.000000	94.400432  
3808.000000	94.435604  
3807.000000	94.450887  
3806.000000	94.445939  
3805.000000	94.460016  
3804.000000	94.505934  
3803.000000	94.541369  
3802.000000	94.517823  
3801.000000	94.457388  
3800.000000	94.426533  
3799.000000	94.445306  
3798.000000	94.476602  
3797.000000	94.480735  
3796.000000	94.458755  
3795.000000	94.439424  
3794.000000	94.436539  
3793.000000	94.440743  
3792.000000	94.444823  
3791.000000	94.458433  
3790.000000	94.489904  
3789.000000	94.529259  
3788.000000	94.559534  
3787.000000	94.576408  
3786.000000	94.587987  
3785.000000	94.600767  
3784.000000	94.613610  
3783.000000	94.624902  
3782.000000	94.630896  
3781.000000	94.620608  
3780.000000	94.587674  
3779.000000	94.548516  
3778.000000	94.529208  
3777.000000	94.533540  
3776.000000	94.539572  
3775.000000	94.528929  
3774.000000	94.514978  
3773.000000	94.532684  
3772.000000	94.594800  
3771.000000	94.665763  
3770.000000	94.695308  
3769.000000	94.676502  
3768.000000	94.645803  
3767.000000	94.631339  
3766.000000	94.631086  
3765.000000	94.636158  
3764.000000	94.653610  
3763.000000	94.695759  
3762.000000	94.752664  
3761.000000	94.793705  
3760.000000	94.798540  
3759.000000	94.775034  
3758.000000	94.740489  
3757.000000	94.706563  
3756.000000	94.687980  
3755.000000	94.698044  
3754.000000	94.732842  
3753.000000	94.771197  
3752.000000	94.798426  
3751.000000	94.815959  
3750.000000	94.816933  
3749.000000	94.795156  
3748.000000	94.778999  
3747.000000	94.802462  
3746.000000	94.856009  
3745.000000	94.881555  
3744.000000	94.856039  
3743.000000	94.837362  
3742.000000	94.866472  
3741.000000	94.909903  
3740.000000	94.920045  
3739.000000	94.889953  
3738.000000	94.848302  
3737.000000	94.818193  
3736.000000	94.810899  
3735.000000	94.839234  
3734.000000	94.899178  
3733.000000	94.951936  
3732.000000	94.955363  
3731.000000	94.908605  
3730.000000	94.847999  
3729.000000	94.808040  
3728.000000	94.799566  
3727.000000	94.817140  
3726.000000	94.851995  
3725.000000	94.885521  
3724.000000	94.886597  
3723.000000	94.842572  
3722.000000	94.783829  
3721.000000	94.760023  
3720.000000	94.789205  
3719.000000	94.842084  
3718.000000	94.872599  
3717.000000	94.860647  
3716.000000	94.824941  
3715.000000	94.792795  
3714.000000	94.768983  
3713.000000	94.737080  
3712.000000	94.685920  
3711.000000	94.625866  
3710.000000	94.572397  
3709.000000	94.531771  
3708.000000	94.501937  
3707.000000	94.475395  
3706.000000	94.445492  
3705.000000	94.409430  
3704.000000	94.364780  
3703.000000	94.308924  
3702.000000	94.243446  
3701.000000	94.175987  
3700.000000	94.114194  
3699.000000	94.055529  
3698.000000	93.983172  
3697.000000	93.881737  
3696.000000	93.761871  
3695.000000	93.655156  
3694.000000	93.580392  
3693.000000	93.530430  
3692.000000	93.489323  
3691.000000	93.449996  
3690.000000	93.408898  
3689.000000	93.350698  
3688.000000	93.262101  
3687.000000	93.160701  
3686.000000	93.080310  
3685.000000	93.036983  
3684.000000	93.027649  
3683.000000	93.045761  
3682.000000	93.081018  
3681.000000	93.102959  
3680.000000	93.070311  
3679.000000	92.966205  
3678.000000	92.805006  
3677.000000	92.610830  
3676.000000	92.423628  
3675.000000	92.307417  
3674.000000	92.287521  
3673.000000	92.342463  
3672.000000	92.422711  
3671.000000	92.471876  
3670.000000	92.467956  
3669.000000	92.440346  
3668.000000	92.423791  
3667.000000	92.418292  
3666.000000	92.396556  
3665.000000	92.335112  
3664.000000	92.237291  
3663.000000	92.131189  
3662.000000	92.046066  
3661.000000	91.992578  
3660.000000	91.967558  
3659.000000	91.965189  
3658.000000	91.977114  
3657.000000	91.984579  
3656.000000	91.969909  
3655.000000	91.941226  
3654.000000	91.923745  
3653.000000	91.927835  
3652.000000	91.934682  
3651.000000	91.915315  
3650.000000	91.869145  
3649.000000	91.825969  
3648.000000	91.790459  
3647.000000	91.742119  
3646.000000	91.676969  
3645.000000	91.603182  
3644.000000	91.523064  
3643.000000	91.436288  
3642.000000	91.354599  
3641.000000	91.301508  
3640.000000	91.288335  
3639.000000	91.292158  
3638.000000	91.270586  
3637.000000	91.197893  
3636.000000	91.078817  
3635.000000	90.933278  
3634.000000	90.781815  
3633.000000	90.645085  
3632.000000	90.535916  
3631.000000	90.441009  
3630.000000	90.316159  
3629.000000	90.134189  
3628.000000	89.936050  
3627.000000	89.773669  
3626.000000	89.644552  
3625.000000	89.515444  
3624.000000	89.370640  
3623.000000	89.223147  
3622.000000	89.085934  
3621.000000	88.936590  
3620.000000	88.727139  
3619.000000	88.443376  
3618.000000	88.134514  
3617.000000	87.856861  
3616.000000	87.619794  
3615.000000	87.395093  
3614.000000	87.157430  
3613.000000	86.911728  
3612.000000	86.677284  
3611.000000	86.450021  
3610.000000	86.194798  
3609.000000	85.881650  
3608.000000	85.525512  
3607.000000	85.172743  
3606.000000	84.851367  
3605.000000	84.558322  
3604.000000	84.280130  
3603.000000	84.000327  
3602.000000	83.693300  
3601.000000	83.331194  
3600.000000	82.911823  
3599.000000	82.464971  
3598.000000	82.020920  
3597.000000	81.584044  
3596.000000	81.138755  
3595.000000	80.673091  
3594.000000	80.199374  
3593.000000	79.750813  
3592.000000	79.352146  
3591.000000	78.995254  
3590.000000	78.633872  
3589.000000	78.205716  
3588.000000	77.692368  
3587.000000	77.162317  
3586.000000	76.700363  
3585.000000	76.320732  
3584.000000	75.986350  
3583.000000	75.659440  
3582.000000	75.320098  
3581.000000	74.963929  
3580.000000	74.596723  
3579.000000	74.226837  
3578.000000	73.855318  
3577.000000	73.474917  
3576.000000	73.078663  
3575.000000	72.665848  
3574.000000	72.239498  
3573.000000	71.806088  
3572.000000	71.379116  
3571.000000	70.973630  
3570.000000	70.586162  
3569.000000	70.173371  
3568.000000	69.667626  
3567.000000	69.050740  
3566.000000	68.394891  
3565.000000	67.780514  
3564.000000	67.222632  
3563.000000	66.694582  
3562.000000	66.171355  
3561.000000	65.644338  
3560.000000	65.113251  
3559.000000	64.577512  
3558.000000	64.039586  
3557.000000	63.511265  
3556.000000	63.006651  
3555.000000	62.524572  
3554.000000	62.043518  
3553.000000	61.546053  
3552.000000	61.049200  
3551.000000	60.593396  
3550.000000	60.198839  
3549.000000	59.846749  
3548.000000	59.502475  
3547.000000	59.151181  
3546.000000	58.814104  
3545.000000	58.529528  
3544.000000	58.319674  
3543.000000	58.178924  
3542.000000	58.085661  
3541.000000	58.017240  
3540.000000	57.957432  
3539.000000	57.896406  
3538.000000	57.830678  
3537.000000	57.767337  
3536.000000	57.725535  
3535.000000	57.724831  
3534.000000	57.768973  
3533.000000	57.842289  
3532.000000	57.919005  
3531.000000	57.975006  
3530.000000	57.996866  
3529.000000	57.987225  
3528.000000	57.961812  
3527.000000	57.935249  
3526.000000	57.907596  
3525.000000	57.868124  
3524.000000	57.814017  
3523.000000	57.761314  
3522.000000	57.732978  
3521.000000	57.737489  
3520.000000	57.762315  
3519.000000	57.784214  
3518.000000	57.784920  
3517.000000	57.760127  
3516.000000	57.715091  
3515.000000	57.653733  
3514.000000	57.574810  
3513.000000	57.476067  
3512.000000	57.355431  
3511.000000	57.208222  
3510.000000	57.032030  
3509.000000	56.839605  
3508.000000	56.658157  
3507.000000	56.507159  
3506.000000	56.381590  
3505.000000	56.261875  
3504.000000	56.138981  
3503.000000	56.023901  
3502.000000	55.929614  
3501.000000	55.854202  
3500.000000	55.789565  
3499.000000	55.736041  
3498.000000	55.701176  
3497.000000	55.688571  
3496.000000	55.693465  
3495.000000	55.707985  
3494.000000	55.725691  
3493.000000	55.739308  
3492.000000	55.737838  
3491.000000	55.709502  
3490.000000	55.647872  
3489.000000	55.555043  
3488.000000	55.440613  
3487.000000	55.318809  
3486.000000	55.204270  
3485.000000	55.105835  
3484.000000	55.020623  
3483.000000	54.935532  
3482.000000	54.840284  
3481.000000	54.740569  
3480.000000	54.652146  
3479.000000	54.580252  
3478.000000	54.512873  
3477.000000	54.438011  
3476.000000	54.360845  
3475.000000	54.295094  
3474.000000	54.238437  
3473.000000	54.167864  
3472.000000	54.064960  
3471.000000	53.939392  
3470.000000	53.821061  
3469.000000	53.732614  
3468.000000	53.674376  
3467.000000	53.634501  
3466.000000	53.606495  
3465.000000	53.591572  
3464.000000	53.587282  
3463.000000	53.581283  
3462.000000	53.560830  
3461.000000	53.526748  
3460.000000	53.493696  
3459.000000	53.474575  
3458.000000	53.466723  
3457.000000	53.454509  
3456.000000	53.424823  
3455.000000	53.379603  
3454.000000	53.333211  
3453.000000	53.297799  
3452.000000	53.271026  
3451.000000	53.238176  
3450.000000	53.186722  
3449.000000	53.120091  
3448.000000	53.058932  
3447.000000	53.026802  
3446.000000	53.030516  
3445.000000	53.055435  
3444.000000	53.079686  
3443.000000	53.091541  
3442.000000	53.095034  
3441.000000	53.100406  
3440.000000	53.110385  
3439.000000	53.118545  
3438.000000	53.121585  
3437.000000	53.128755  
3436.000000	53.155033  
3435.000000	53.206347  
3434.000000	53.274528  
3433.000000	53.345599  
3432.000000	53.410564  
3431.000000	53.470370  
3430.000000	53.534825  
3429.000000	53.616424  
3428.000000	53.720454  
3427.000000	53.839463  
3426.000000	53.959284  
3425.000000	54.069892  
3424.000000	54.167839  
3423.000000	54.250157  
3422.000000	54.313545  
3421.000000	54.362112  
3420.000000	54.409363  
3419.000000	54.466205  
3418.000000	54.529328  
3417.000000	54.584409  
3416.000000	54.618214  
3415.000000	54.627269  
3414.000000	54.619418  
3413.000000	54.609901  
3412.000000	54.613532  
3411.000000	54.637773  
3410.000000	54.682160  
3409.000000	54.741711  
3408.000000	54.806710  
3407.000000	54.861114  
3406.000000	54.889489  
3405.000000	54.889659  
3404.000000	54.874437  
3403.000000	54.857739  
3402.000000	54.843311  
3401.000000	54.829423  
3400.000000	54.817628  
3399.000000	54.810629  
3398.000000	54.805984  
3397.000000	54.799384  
3396.000000	54.792523  
3395.000000	54.791069  
3394.000000	54.794759  
3393.000000	54.794169  
3392.000000	54.778403  
3391.000000	54.744173  
3390.000000	54.697936  
3389.000000	54.651632  
3388.000000	54.615001  
3387.000000	54.588092  
3386.000000	54.560959  
3385.000000	54.523378  
3384.000000	54.474533  
3383.000000	54.421076  
3382.000000	54.367748  
3381.000000	54.313575  
3380.000000	54.256427  
3379.000000	54.198110  
3378.000000	54.144182  
3377.000000	54.099547  
3376.000000	54.063325  
3375.000000	54.027586  
3374.000000	53.983106  
3373.000000	53.927295  
3372.000000	53.864548  
3371.000000	53.798735  
3370.000000	53.729625  
3369.000000	53.658515  
3368.000000	53.592917  
3367.000000	53.541024  
3366.000000	53.503023  
3365.000000	53.471040  
3364.000000	53.436352  
3363.000000	53.393961  
3362.000000	53.342898  
3361.000000	53.286861  
3360.000000	53.234482  
3359.000000	53.195260  
3358.000000	53.172948  
3357.000000	53.162341  
3356.000000	53.151382  
3355.000000	53.126780  
3354.000000	53.081323  
3353.000000	53.019033  
3352.000000	52.953418  
3351.000000	52.899426  
3350.000000	52.866122  
3349.000000	52.854734  
3348.000000	52.859526  
3347.000000	52.869249  
3346.000000	52.871302  
3345.000000	52.857813  
3344.000000	52.827520  
3343.000000	52.781870  
3342.000000	52.722688  
3341.000000	52.655757  
3340.000000	52.593580  
3339.000000	52.550665  
3338.000000	52.535119  
3337.000000	52.543902  
3336.000000	52.564025  
3335.000000	52.579083  
3334.000000	52.579047  
3333.000000	52.566316  
3332.000000	52.550635  
3331.000000	52.536807  
3330.000000	52.519656  
3329.000000	52.492519  
3328.000000	52.458036  
3327.000000	52.427833  
3326.000000	52.412358  
3325.000000	52.412213  
3324.000000	52.417815  
3323.000000	52.416618  
3322.000000	52.402923  
3321.000000	52.382376  
3320.000000	52.365614  
3319.000000	52.357243  
3318.000000	52.354036  
3317.000000	52.354371  
3316.000000	52.364127  
3315.000000	52.389180  
3314.000000	52.424272  
3313.000000	52.453830  
3312.000000	52.464542  
3311.000000	52.455973  
3310.000000	52.439856  
3309.000000	52.430691  
3308.000000	52.436419  
3307.000000	52.456784  
3306.000000	52.489370  
3305.000000	52.534075  
3304.000000	52.589183  
3303.000000	52.646647  
3302.000000	52.697714  
3301.000000	52.742975  
3300.000000	52.790021  
3299.000000	52.839160  
3298.000000	52.878395  
3297.000000	52.897237  
3296.000000	52.900906  
3295.000000	52.905544  
3294.000000	52.922735  
3293.000000	52.953178  
3292.000000	52.991364  
3291.000000	53.029712  
3290.000000	53.059202  
3289.000000	53.072715  
3288.000000	53.070484  
3287.000000	53.060108  
3286.000000	53.050234  
3285.000000	53.045063  
3284.000000	53.043785  
3283.000000	53.042803  
3282.000000	53.038380  
3281.000000	53.028205  
3280.000000	53.010423  
3279.000000	52.982306  
3278.000000	52.943076  
3277.000000	52.898337  
3276.000000	52.857104  
3275.000000	52.821138  
3274.000000	52.780271  
3273.000000	52.722114  
3272.000000	52.644534  
3271.000000	52.555819  
3270.000000	52.465321  
3269.000000	52.377902  
3268.000000	52.295701  
3267.000000	52.219931  
3266.000000	52.148426  
3265.000000	52.072708  
3264.000000	51.979749  
3263.000000	51.860278  
3262.000000	51.719367  
3261.000000	51.578349  
3260.000000	51.460640  
3259.000000	51.371602  
3258.000000	51.293496  
3257.000000	51.201130  
3256.000000	51.080252  
3255.000000	50.931409  
3254.000000	50.763219  
3253.000000	50.587426  
3252.000000	50.416747  
3251.000000	50.260049  
3250.000000	50.117338  
3249.000000	49.981143  
3248.000000	49.842915  
3247.000000	49.698326  
3246.000000	49.549630  
3245.000000	49.405123  
3244.000000	49.272945  
3243.000000	49.151625  
3242.000000	49.028861  
3241.000000	48.893399  
3240.000000	48.747302  
3239.000000	48.603314  
3238.000000	48.470335  
3237.000000	48.344914  
3236.000000	48.217968  
3235.000000	48.086559  
3234.000000	47.956046  
3233.000000	47.831442  
3232.000000	47.710080  
3231.000000	47.585450  
3230.000000	47.457391  
3229.000000	47.334607  
3228.000000	47.224615  
3227.000000	47.123686  
3226.000000	47.020448  
3225.000000	46.908331  
3224.000000	46.790430  
3223.000000	46.672296  
3222.000000	46.554842  
3221.000000	46.436643  
3220.000000	46.319758  
3219.000000	46.209656  
3218.000000	46.109876  
3217.000000	46.018555  
3216.000000	45.930026  
3215.000000	45.839386  
3214.000000	45.746396  
3213.000000	45.655052  
3212.000000	45.568845  
3211.000000	45.487199  
3210.000000	45.407068  
3209.000000	45.326181  
3208.000000	45.243386  
3207.000000	45.158757  
3206.000000	45.076706  
3205.000000	45.006646  
3204.000000	44.955316  
3203.000000	44.918047  
3202.000000	44.881260  
3201.000000	44.833850  
3200.000000	44.773490  
3199.000000	44.703751  
3198.000000	44.630750  
3197.000000	44.562645  
3196.000000	44.505964  
3195.000000	44.459382  
3194.000000	44.414837  
3193.000000	44.367133  
3192.000000	44.319884  
3191.000000	44.280666  
3190.000000	44.253262  
3189.000000	44.236398  
3188.000000	44.227088  
3187.000000	44.223040  
3186.000000	44.223670  
